# E (eV)  dosup(E)   dosdw(E)   dosup(E)   dosdw(E)   dosup(E)   dosdw(E)   dosup(E)   dosdw(E)   dosup(E)   dosdw(E)   
  4.249  0.310E-31  0.120E-33  0.189E-31  0.669E-33  0.189E-31  0.669E-33  0.310E-31  0.120E-33  0.189E-31  0.669E-33
  4.349  0.777E-30  0.322E-32  0.474E-30  0.179E-31  0.474E-30  0.179E-31  0.777E-30  0.322E-32  0.474E-30  0.179E-31
  4.449  0.156E-28  0.721E-31  0.881E-18  0.260E-18  0.881E-18  0.260E-18  0.156E-28  0.721E-31  0.881E-18  0.260E-18
  4.549  0.152E-17  0.469E-18  0.269E-16  0.848E-17  0.269E-16  0.848E-17  0.152E-17  0.469E-18  0.269E-16  0.848E-17
  4.649  0.458E-16  0.152E-16  0.658E-15  0.222E-15  0.658E-15  0.222E-15  0.458E-16  0.152E-16  0.658E-15  0.222E-15
  4.749  0.111E-14  0.392E-15  0.129E-13  0.464E-14  0.129E-13  0.464E-14  0.111E-14  0.392E-15  0.129E-13  0.464E-14
  4.849  0.215E-13  0.813E-14  0.202E-12  0.778E-13  0.202E-12  0.778E-13  0.215E-13  0.813E-14  0.202E-12  0.778E-13
  4.949  0.334E-12  0.135E-12  0.253E-11  0.104E-11  0.253E-11  0.104E-11  0.334E-12  0.135E-12  0.253E-11  0.104E-11
  5.049  0.415E-11  0.179E-11  0.255E-10  0.112E-10  0.255E-10  0.112E-10  0.415E-11  0.179E-11  0.255E-10  0.112E-10
  5.149  0.413E-10  0.191E-10  0.205E-09  0.966E-10  0.205E-09  0.966E-10  0.413E-10  0.191E-10  0.205E-09  0.966E-10
  5.249  0.329E-09  0.163E-09  0.132E-08  0.666E-09  0.132E-08  0.666E-09  0.329E-09  0.163E-09  0.132E-08  0.666E-09
  5.349  0.210E-08  0.111E-08  0.682E-08  0.368E-08  0.682E-08  0.368E-08  0.210E-08  0.111E-08  0.682E-08  0.368E-08
  5.449  0.107E-07  0.608E-08  0.282E-07  0.163E-07  0.282E-07  0.163E-07  0.107E-07  0.608E-08  0.282E-07  0.163E-07
  5.549  0.440E-07  0.266E-07  0.936E-07  0.577E-07  0.936E-07  0.577E-07  0.440E-07  0.266E-07  0.936E-07  0.577E-07
  5.649  0.145E-06  0.936E-07  0.250E-06  0.164E-06  0.250E-06  0.164E-06  0.145E-06  0.936E-07  0.250E-06  0.164E-06
  5.749  0.384E-06  0.265E-06  0.542E-06  0.379E-06  0.542E-06  0.379E-06  0.384E-06  0.265E-06  0.542E-06  0.379E-06
  5.849  0.827E-06  0.606E-06  0.981E-06  0.721E-06  0.981E-06  0.721E-06  0.827E-06  0.606E-06  0.981E-06  0.721E-06
  5.949  0.147E-05  0.114E-05  0.157E-05  0.119E-05  0.157E-05  0.119E-05  0.147E-05  0.114E-05  0.157E-05  0.119E-05
  6.049  0.227E-05  0.182E-05  0.248E-05  0.185E-05  0.248E-05  0.185E-05  0.227E-05  0.182E-05  0.248E-05  0.185E-05
  6.149  0.332E-05  0.267E-05  0.423E-05  0.306E-05  0.423E-05  0.306E-05  0.332E-05  0.267E-05  0.423E-05  0.306E-05
  6.249  0.516E-05  0.402E-05  0.769E-05  0.549E-05  0.769E-05  0.549E-05  0.516E-05  0.402E-05  0.769E-05  0.549E-05
  6.349  0.890E-05  0.672E-05  0.138E-04  0.992E-05  0.138E-04  0.992E-05  0.890E-05  0.672E-05  0.138E-04  0.992E-05
  6.449  0.157E-04  0.119E-04  0.231E-04  0.170E-04  0.231E-04  0.170E-04  0.157E-04  0.119E-04  0.231E-04  0.170E-04
  6.549  0.255E-04  0.199E-04  0.355E-04  0.268E-04  0.355E-04  0.268E-04  0.255E-04  0.199E-04  0.355E-04  0.268E-04
  6.649  0.360E-04  0.295E-04  0.486E-04  0.380E-04  0.486E-04  0.380E-04  0.360E-04  0.295E-04  0.486E-04  0.380E-04
  6.749  0.440E-04  0.377E-04  0.580E-04  0.475E-04  0.580E-04  0.475E-04  0.440E-04  0.377E-04  0.580E-04  0.475E-04
  6.849  0.482E-04  0.423E-04  0.600E-04  0.512E-04  0.600E-04  0.512E-04  0.482E-04  0.423E-04  0.600E-04  0.512E-04
  6.949  0.523E-04  0.451E-04  0.568E-04  0.489E-04  0.568E-04  0.489E-04  0.523E-04  0.451E-04  0.568E-04  0.489E-04
  7.049  0.629E-04  0.517E-04  0.597E-04  0.476E-04  0.597E-04  0.476E-04  0.629E-04  0.517E-04  0.597E-04  0.476E-04
  7.149  0.857E-04  0.677E-04  0.848E-04  0.603E-04  0.848E-04  0.603E-04  0.857E-04  0.677E-04  0.848E-04  0.603E-04
  7.249  0.122E-03  0.958E-04  0.142E-03  0.983E-04  0.142E-03  0.983E-04  0.122E-03  0.958E-04  0.142E-03  0.983E-04
  7.349  0.169E-03  0.135E-03  0.223E-03  0.161E-03  0.223E-03  0.161E-03  0.169E-03  0.135E-03  0.223E-03  0.161E-03
  7.449  0.216E-03  0.178E-03  0.305E-03  0.231E-03  0.305E-03  0.231E-03  0.216E-03  0.178E-03  0.305E-03  0.231E-03
  7.549  0.253E-03  0.214E-03  0.370E-03  0.289E-03  0.370E-03  0.289E-03  0.253E-03  0.214E-03  0.370E-03  0.289E-03
  7.649  0.284E-03  0.240E-03  0.421E-03  0.331E-03  0.421E-03  0.331E-03  0.284E-03  0.240E-03  0.421E-03  0.331E-03
  7.749  0.330E-03  0.270E-03  0.475E-03  0.368E-03  0.475E-03  0.368E-03  0.330E-03  0.270E-03  0.475E-03  0.368E-03
  7.849  0.416E-03  0.327E-03  0.531E-03  0.412E-03  0.531E-03  0.412E-03  0.416E-03  0.327E-03  0.531E-03  0.412E-03
  7.949  0.535E-03  0.422E-03  0.568E-03  0.451E-03  0.568E-03  0.451E-03  0.535E-03  0.422E-03  0.568E-03  0.451E-03
  8.049  0.642E-03  0.527E-03  0.564E-03  0.463E-03  0.564E-03  0.463E-03  0.642E-03  0.527E-03  0.564E-03  0.463E-03
  8.149  0.682E-03  0.590E-03  0.538E-03  0.445E-03  0.538E-03  0.445E-03  0.682E-03  0.590E-03  0.538E-03  0.445E-03
  8.249  0.661E-03  0.584E-03  0.562E-03  0.426E-03  0.562E-03  0.426E-03  0.661E-03  0.584E-03  0.562E-03  0.426E-03
  8.349  0.667E-03  0.552E-03  0.746E-03  0.481E-03  0.746E-03  0.481E-03  0.667E-03  0.552E-03  0.746E-03  0.481E-03
  8.449  0.813E-03  0.595E-03  0.117E-02  0.692E-03  0.117E-02  0.692E-03  0.813E-03  0.595E-03  0.117E-02  0.692E-03
  8.549  0.114E-02  0.792E-03  0.178E-02  0.109E-02  0.178E-02  0.109E-02  0.114E-02  0.792E-03  0.178E-02  0.109E-02
  8.649  0.159E-02  0.114E-02  0.241E-02  0.160E-02  0.241E-02  0.160E-02  0.159E-02  0.114E-02  0.241E-02  0.160E-02
  8.749  0.204E-02  0.153E-02  0.285E-02  0.204E-02  0.285E-02  0.204E-02  0.204E-02  0.153E-02  0.285E-02  0.204E-02
  8.849  0.243E-02  0.187E-02  0.306E-02  0.225E-02  0.306E-02  0.225E-02  0.243E-02  0.187E-02  0.306E-02  0.225E-02
  8.949  0.276E-02  0.215E-02  0.324E-02  0.229E-02  0.324E-02  0.229E-02  0.276E-02  0.215E-02  0.324E-02  0.229E-02
  9.049  0.307E-02  0.239E-02  0.354E-02  0.235E-02  0.354E-02  0.235E-02  0.307E-02  0.239E-02  0.354E-02  0.235E-02
  9.149  0.333E-02  0.260E-02  0.390E-02  0.257E-02  0.390E-02  0.257E-02  0.333E-02  0.260E-02  0.390E-02  0.257E-02
  9.249  0.360E-02  0.275E-02  0.415E-02  0.287E-02  0.415E-02  0.287E-02  0.360E-02  0.275E-02  0.415E-02  0.287E-02
  9.349  0.408E-02  0.290E-02  0.449E-02  0.305E-02  0.449E-02  0.305E-02  0.408E-02  0.290E-02  0.449E-02  0.305E-02
  9.449  0.498E-02  0.319E-02  0.564E-02  0.308E-02  0.564E-02  0.308E-02  0.498E-02  0.319E-02  0.564E-02  0.308E-02
  9.549  0.636E-02  0.382E-02  0.854E-02  0.329E-02  0.854E-02  0.329E-02  0.636E-02  0.382E-02  0.854E-02  0.329E-02
  9.649  0.835E-02  0.478E-02  0.136E-01  0.424E-02  0.136E-01  0.424E-02  0.835E-02  0.478E-02  0.136E-01  0.424E-02
  9.749  0.115E-01  0.595E-02  0.202E-01  0.640E-02  0.202E-01  0.640E-02  0.115E-01  0.595E-02  0.202E-01  0.640E-02
  9.849  0.170E-01  0.727E-02  0.270E-01  0.970E-02  0.270E-01  0.970E-02  0.170E-01  0.727E-02  0.270E-01  0.970E-02
  9.949  0.264E-01  0.900E-02  0.328E-01  0.135E-01  0.328E-01  0.135E-01  0.264E-01  0.900E-02  0.328E-01  0.135E-01
 10.049  0.401E-01  0.117E-01  0.376E-01  0.169E-01  0.376E-01  0.169E-01  0.401E-01  0.117E-01  0.376E-01  0.169E-01
 10.149  0.565E-01  0.162E-01  0.421E-01  0.197E-01  0.421E-01  0.197E-01  0.565E-01  0.162E-01  0.421E-01  0.197E-01
 10.249  0.727E-01  0.231E-01  0.474E-01  0.224E-01  0.474E-01  0.224E-01  0.727E-01  0.231E-01  0.474E-01  0.224E-01
 10.349  0.862E-01  0.328E-01  0.545E-01  0.257E-01  0.545E-01  0.257E-01  0.862E-01  0.328E-01  0.545E-01  0.257E-01
 10.449  0.973E-01  0.448E-01  0.641E-01  0.301E-01  0.641E-01  0.301E-01  0.973E-01  0.448E-01  0.641E-01  0.301E-01
 10.549  0.107E+00  0.578E-01  0.768E-01  0.355E-01  0.768E-01  0.355E-01  0.107E+00  0.578E-01  0.768E-01  0.355E-01
 10.649  0.115E+00  0.705E-01  0.931E-01  0.416E-01  0.931E-01  0.416E-01  0.115E+00  0.705E-01  0.931E-01  0.416E-01
 10.749  0.121E+00  0.826E-01  0.113E+00  0.481E-01  0.113E+00  0.481E-01  0.121E+00  0.826E-01  0.113E+00  0.481E-01
 10.849  0.125E+00  0.944E-01  0.134E+00  0.545E-01  0.134E+00  0.545E-01  0.125E+00  0.944E-01  0.134E+00  0.545E-01
 10.949  0.127E+00  0.105E+00  0.154E+00  0.601E-01  0.154E+00  0.601E-01  0.127E+00  0.105E+00  0.154E+00  0.601E-01
 11.049  0.128E+00  0.111E+00  0.169E+00  0.660E-01  0.169E+00  0.660E-01  0.128E+00  0.111E+00  0.169E+00  0.660E-01
 11.149  0.128E+00  0.113E+00  0.178E+00  0.750E-01  0.178E+00  0.750E-01  0.128E+00  0.113E+00  0.178E+00  0.750E-01
 11.249  0.127E+00  0.115E+00  0.182E+00  0.899E-01  0.182E+00  0.899E-01  0.127E+00  0.115E+00  0.182E+00  0.899E-01
 11.349  0.126E+00  0.118E+00  0.182E+00  0.110E+00  0.182E+00  0.110E+00  0.126E+00  0.118E+00  0.182E+00  0.110E+00
 11.449  0.126E+00  0.121E+00  0.178E+00  0.131E+00  0.178E+00  0.131E+00  0.126E+00  0.121E+00  0.178E+00  0.131E+00
 11.549  0.127E+00  0.122E+00  0.171E+00  0.149E+00  0.171E+00  0.149E+00  0.127E+00  0.122E+00  0.171E+00  0.149E+00
 11.649  0.129E+00  0.120E+00  0.166E+00  0.162E+00  0.166E+00  0.162E+00  0.129E+00  0.120E+00  0.166E+00  0.162E+00
 11.749  0.131E+00  0.116E+00  0.168E+00  0.171E+00  0.168E+00  0.171E+00  0.131E+00  0.116E+00  0.168E+00  0.171E+00
 11.849  0.132E+00  0.112E+00  0.177E+00  0.174E+00  0.177E+00  0.174E+00  0.132E+00  0.112E+00  0.177E+00  0.174E+00
 11.949  0.131E+00  0.110E+00  0.191E+00  0.173E+00  0.191E+00  0.173E+00  0.131E+00  0.110E+00  0.191E+00  0.173E+00
 12.049  0.129E+00  0.110E+00  0.208E+00  0.167E+00  0.208E+00  0.167E+00  0.129E+00  0.110E+00  0.208E+00  0.167E+00
 12.149  0.130E+00  0.113E+00  0.223E+00  0.163E+00  0.223E+00  0.163E+00  0.130E+00  0.113E+00  0.223E+00  0.163E+00
 12.249  0.136E+00  0.117E+00  0.237E+00  0.162E+00  0.237E+00  0.162E+00  0.136E+00  0.117E+00  0.237E+00  0.162E+00
 12.349  0.145E+00  0.117E+00  0.249E+00  0.168E+00  0.249E+00  0.168E+00  0.145E+00  0.117E+00  0.249E+00  0.168E+00
 12.449  0.158E+00  0.113E+00  0.260E+00  0.180E+00  0.260E+00  0.180E+00  0.158E+00  0.113E+00  0.260E+00  0.180E+00
 12.549  0.172E+00  0.111E+00  0.274E+00  0.196E+00  0.274E+00  0.196E+00  0.172E+00  0.111E+00  0.274E+00  0.196E+00
 12.649  0.186E+00  0.112E+00  0.290E+00  0.212E+00  0.290E+00  0.212E+00  0.186E+00  0.112E+00  0.290E+00  0.212E+00
 12.749  0.198E+00  0.118E+00  0.304E+00  0.226E+00  0.304E+00  0.226E+00  0.198E+00  0.118E+00  0.304E+00  0.226E+00
 12.849  0.205E+00  0.124E+00  0.309E+00  0.239E+00  0.309E+00  0.239E+00  0.205E+00  0.124E+00  0.309E+00  0.239E+00
 12.949  0.205E+00  0.133E+00  0.296E+00  0.249E+00  0.296E+00  0.249E+00  0.205E+00  0.133E+00  0.296E+00  0.249E+00
 13.049  0.200E+00  0.145E+00  0.267E+00  0.256E+00  0.267E+00  0.256E+00  0.200E+00  0.145E+00  0.267E+00  0.256E+00
 13.149  0.194E+00  0.162E+00  0.229E+00  0.263E+00  0.229E+00  0.263E+00  0.194E+00  0.162E+00  0.229E+00  0.263E+00
 13.249  0.195E+00  0.179E+00  0.193E+00  0.269E+00  0.193E+00  0.269E+00  0.195E+00  0.179E+00  0.193E+00  0.269E+00
 13.349  0.209E+00  0.195E+00  0.167E+00  0.272E+00  0.167E+00  0.272E+00  0.209E+00  0.195E+00  0.167E+00  0.272E+00
 13.449  0.238E+00  0.206E+00  0.153E+00  0.269E+00  0.153E+00  0.269E+00  0.238E+00  0.206E+00  0.153E+00  0.269E+00
 13.549  0.278E+00  0.211E+00  0.148E+00  0.257E+00  0.148E+00  0.257E+00  0.278E+00  0.211E+00  0.148E+00  0.257E+00
 13.649  0.319E+00  0.211E+00  0.145E+00  0.234E+00  0.145E+00  0.234E+00  0.319E+00  0.211E+00  0.145E+00  0.234E+00
 13.749  0.352E+00  0.208E+00  0.140E+00  0.206E+00  0.140E+00  0.206E+00  0.352E+00  0.208E+00  0.140E+00  0.206E+00
 13.849  0.369E+00  0.211E+00  0.134E+00  0.180E+00  0.134E+00  0.180E+00  0.369E+00  0.211E+00  0.134E+00  0.180E+00
 13.949  0.371E+00  0.224E+00  0.131E+00  0.158E+00  0.131E+00  0.158E+00  0.371E+00  0.224E+00  0.131E+00  0.158E+00
 14.049  0.361E+00  0.250E+00  0.139E+00  0.143E+00  0.139E+00  0.143E+00  0.361E+00  0.250E+00  0.139E+00  0.143E+00
 14.149  0.347E+00  0.285E+00  0.158E+00  0.134E+00  0.158E+00  0.134E+00  0.347E+00  0.285E+00  0.158E+00  0.134E+00
 14.249  0.334E+00  0.321E+00  0.184E+00  0.130E+00  0.184E+00  0.130E+00  0.334E+00  0.321E+00  0.184E+00  0.130E+00
 14.349  0.323E+00  0.349E+00  0.215E+00  0.127E+00  0.215E+00  0.127E+00  0.323E+00  0.349E+00  0.215E+00  0.127E+00
 14.449  0.314E+00  0.360E+00  0.248E+00  0.121E+00  0.248E+00  0.121E+00  0.314E+00  0.360E+00  0.248E+00  0.121E+00
 14.549  0.300E+00  0.355E+00  0.278E+00  0.115E+00  0.278E+00  0.115E+00  0.300E+00  0.355E+00  0.278E+00  0.115E+00
 14.649  0.270E+00  0.338E+00  0.291E+00  0.118E+00  0.291E+00  0.118E+00  0.270E+00  0.338E+00  0.291E+00  0.118E+00
 14.749  0.221E+00  0.320E+00  0.274E+00  0.132E+00  0.274E+00  0.132E+00  0.221E+00  0.320E+00  0.274E+00  0.132E+00
 14.849  0.162E+00  0.302E+00  0.227E+00  0.157E+00  0.227E+00  0.157E+00  0.162E+00  0.302E+00  0.227E+00  0.157E+00
 14.949  0.108E+00  0.288E+00  0.165E+00  0.184E+00  0.165E+00  0.184E+00  0.108E+00  0.288E+00  0.165E+00  0.184E+00
 15.049  0.701E-01  0.275E+00  0.109E+00  0.211E+00  0.109E+00  0.211E+00  0.701E-01  0.275E+00  0.109E+00  0.211E+00
 15.149  0.502E-01  0.264E+00  0.710E-01  0.241E+00  0.710E-01  0.241E+00  0.502E-01  0.264E+00  0.710E-01  0.241E+00
 15.249  0.414E-01  0.248E+00  0.493E-01  0.270E+00  0.493E-01  0.270E+00  0.414E-01  0.248E+00  0.493E-01  0.270E+00
 15.349  0.357E-01  0.220E+00  0.376E-01  0.288E+00  0.376E-01  0.288E+00  0.357E-01  0.220E+00  0.376E-01  0.288E+00
 15.449  0.291E-01  0.180E+00  0.295E-01  0.280E+00  0.295E-01  0.280E+00  0.291E-01  0.180E+00  0.295E-01  0.280E+00
 15.549  0.217E-01  0.134E+00  0.226E-01  0.243E+00  0.226E-01  0.243E+00  0.217E-01  0.134E+00  0.226E-01  0.243E+00
 15.649  0.156E-01  0.942E-01  0.171E-01  0.189E+00  0.171E-01  0.189E+00  0.156E-01  0.942E-01  0.171E-01  0.189E+00
 15.749  0.115E-01  0.673E-01  0.133E-01  0.135E+00  0.133E-01  0.135E+00  0.115E-01  0.673E-01  0.133E-01  0.135E+00
 15.849  0.922E-02  0.519E-01  0.107E-01  0.918E-01  0.107E-01  0.918E-01  0.922E-02  0.519E-01  0.107E-01  0.918E-01
 15.949  0.809E-02  0.423E-01  0.907E-02  0.628E-01  0.907E-02  0.628E-01  0.809E-02  0.423E-01  0.907E-02  0.628E-01
 16.049  0.801E-02  0.340E-01  0.859E-02  0.442E-01  0.859E-02  0.442E-01  0.801E-02  0.340E-01  0.859E-02  0.442E-01
 16.149  0.911E-02  0.258E-01  0.969E-02  0.318E-01  0.969E-02  0.318E-01  0.911E-02  0.258E-01  0.969E-02  0.318E-01
 16.249  0.111E-01  0.188E-01  0.121E-01  0.229E-01  0.121E-01  0.229E-01  0.111E-01  0.188E-01  0.121E-01  0.229E-01
 16.349  0.131E-01  0.137E-01  0.148E-01  0.165E-01  0.148E-01  0.165E-01  0.131E-01  0.137E-01  0.148E-01  0.165E-01
 16.449  0.140E-01  0.105E-01  0.164E-01  0.122E-01  0.164E-01  0.122E-01  0.140E-01  0.105E-01  0.164E-01  0.122E-01
 16.549  0.135E-01  0.920E-02  0.163E-01  0.103E-01  0.163E-01  0.103E-01  0.135E-01  0.920E-02  0.163E-01  0.103E-01
 16.649  0.119E-01  0.967E-02  0.150E-01  0.108E-01  0.150E-01  0.108E-01  0.119E-01  0.967E-02  0.150E-01  0.108E-01
 16.749  0.101E-01  0.115E-01  0.132E-01  0.133E-01  0.132E-01  0.133E-01  0.101E-01  0.115E-01  0.132E-01  0.133E-01
 16.849  0.860E-02  0.137E-01  0.116E-01  0.163E-01  0.116E-01  0.163E-01  0.860E-02  0.137E-01  0.116E-01  0.163E-01
 16.949  0.754E-02  0.151E-01  0.103E-01  0.186E-01  0.103E-01  0.186E-01  0.754E-02  0.151E-01  0.103E-01  0.186E-01
 17.049  0.677E-02  0.152E-01  0.919E-02  0.194E-01  0.919E-02  0.194E-01  0.677E-02  0.152E-01  0.919E-02  0.194E-01
 17.149  0.607E-02  0.142E-01  0.799E-02  0.188E-01  0.799E-02  0.188E-01  0.607E-02  0.142E-01  0.799E-02  0.188E-01
 17.249  0.529E-02  0.127E-01  0.661E-02  0.176E-01  0.661E-02  0.176E-01  0.529E-02  0.127E-01  0.661E-02  0.176E-01
 17.349  0.444E-02  0.112E-01  0.521E-02  0.161E-01  0.521E-02  0.161E-01  0.444E-02  0.112E-01  0.521E-02  0.161E-01
 17.449  0.369E-02  0.983E-02  0.410E-02  0.143E-01  0.410E-02  0.143E-01  0.369E-02  0.983E-02  0.410E-02  0.143E-01
 17.549  0.322E-02  0.845E-02  0.354E-02  0.121E-01  0.354E-02  0.121E-01  0.322E-02  0.845E-02  0.354E-02  0.121E-01
 17.649  0.307E-02  0.695E-02  0.355E-02  0.965E-02  0.355E-02  0.965E-02  0.307E-02  0.695E-02  0.355E-02  0.965E-02
 17.749  0.318E-02  0.548E-02  0.398E-02  0.726E-02  0.398E-02  0.726E-02  0.318E-02  0.548E-02  0.398E-02  0.726E-02
 17.849  0.344E-02  0.438E-02  0.466E-02  0.559E-02  0.466E-02  0.559E-02  0.344E-02  0.438E-02  0.466E-02  0.559E-02
 17.949  0.378E-02  0.383E-02  0.547E-02  0.496E-02  0.547E-02  0.496E-02  0.378E-02  0.383E-02  0.547E-02  0.496E-02
 18.049  0.409E-02  0.374E-02  0.621E-02  0.515E-02  0.621E-02  0.515E-02  0.409E-02  0.374E-02  0.621E-02  0.515E-02
 18.149  0.421E-02  0.384E-02  0.659E-02  0.569E-02  0.659E-02  0.569E-02  0.421E-02  0.384E-02  0.659E-02  0.569E-02
 18.249  0.400E-02  0.400E-02  0.637E-02  0.626E-02  0.637E-02  0.626E-02  0.400E-02  0.400E-02  0.637E-02  0.626E-02
 18.349  0.356E-02  0.422E-02  0.567E-02  0.682E-02  0.567E-02  0.682E-02  0.356E-02  0.422E-02  0.567E-02  0.682E-02
 18.449  0.317E-02  0.449E-02  0.495E-02  0.733E-02  0.495E-02  0.733E-02  0.317E-02  0.449E-02  0.495E-02  0.733E-02
 18.549  0.300E-02  0.466E-02  0.454E-02  0.758E-02  0.454E-02  0.758E-02  0.300E-02  0.466E-02  0.454E-02  0.758E-02
 18.649  0.296E-02  0.457E-02  0.434E-02  0.738E-02  0.434E-02  0.738E-02  0.296E-02  0.457E-02  0.434E-02  0.738E-02
 18.749  0.278E-02  0.431E-02  0.402E-02  0.686E-02  0.402E-02  0.686E-02  0.278E-02  0.431E-02  0.402E-02  0.686E-02
 18.849  0.236E-02  0.409E-02  0.344E-02  0.641E-02  0.344E-02  0.641E-02  0.236E-02  0.409E-02  0.344E-02  0.641E-02
 18.949  0.183E-02  0.395E-02  0.275E-02  0.612E-02  0.275E-02  0.612E-02  0.183E-02  0.395E-02  0.275E-02  0.612E-02
 19.049  0.143E-02  0.370E-02  0.225E-02  0.572E-02  0.225E-02  0.572E-02  0.143E-02  0.370E-02  0.225E-02  0.572E-02
 19.149  0.128E-02  0.318E-02  0.208E-02  0.496E-02  0.208E-02  0.496E-02  0.128E-02  0.318E-02  0.208E-02  0.496E-02
 19.249  0.137E-02  0.249E-02  0.225E-02  0.401E-02  0.225E-02  0.401E-02  0.137E-02  0.249E-02  0.225E-02  0.401E-02
 19.349  0.159E-02  0.192E-02  0.260E-02  0.325E-02  0.260E-02  0.325E-02  0.159E-02  0.192E-02  0.260E-02  0.325E-02
 19.449  0.175E-02  0.168E-02  0.286E-02  0.302E-02  0.286E-02  0.302E-02  0.175E-02  0.168E-02  0.286E-02  0.302E-02
 19.549  0.170E-02  0.176E-02  0.277E-02  0.331E-02  0.277E-02  0.331E-02  0.170E-02  0.176E-02  0.277E-02  0.331E-02
 19.649  0.141E-02  0.200E-02  0.229E-02  0.383E-02  0.229E-02  0.383E-02  0.141E-02  0.200E-02  0.229E-02  0.383E-02
 19.749  0.982E-03  0.214E-02  0.162E-02  0.410E-02  0.162E-02  0.410E-02  0.982E-03  0.214E-02  0.162E-02  0.410E-02
 19.849  0.583E-03  0.200E-02  0.991E-03  0.381E-02  0.991E-03  0.381E-02  0.583E-03  0.200E-02  0.991E-03  0.381E-02
 19.949  0.307E-03  0.159E-02  0.565E-03  0.299E-02  0.565E-03  0.299E-02  0.307E-03  0.159E-02  0.565E-03  0.299E-02
 20.049  0.185E-03  0.106E-02  0.389E-03  0.198E-02  0.389E-03  0.198E-02  0.185E-03  0.106E-02  0.389E-03  0.198E-02
 20.149  0.208E-03  0.603E-03  0.464E-03  0.112E-02  0.464E-03  0.112E-02  0.208E-03  0.603E-03  0.464E-03  0.112E-02
 20.249  0.354E-03  0.318E-03  0.756E-03  0.607E-03  0.756E-03  0.607E-03  0.354E-03  0.318E-03  0.756E-03  0.607E-03
 20.349  0.577E-03  0.229E-03  0.117E-02  0.462E-03  0.117E-02  0.462E-03  0.577E-03  0.229E-03  0.117E-02  0.462E-03
 20.449  0.792E-03  0.321E-03  0.152E-02  0.658E-03  0.152E-02  0.658E-03  0.792E-03  0.321E-03  0.152E-02  0.658E-03
 20.549  0.899E-03  0.563E-03  0.166E-02  0.113E-02  0.166E-02  0.113E-02  0.899E-03  0.563E-03  0.166E-02  0.113E-02
 20.649  0.852E-03  0.876E-03  0.153E-02  0.170E-02  0.153E-02  0.170E-02  0.852E-03  0.876E-03  0.153E-02  0.170E-02
 20.749  0.695E-03  0.113E-02  0.126E-02  0.213E-02  0.126E-02  0.213E-02  0.695E-03  0.113E-02  0.126E-02  0.213E-02
 20.849  0.517E-03  0.119E-02  0.996E-03  0.222E-02  0.996E-03  0.222E-02  0.517E-03  0.119E-02  0.996E-03  0.222E-02
 20.949  0.380E-03  0.106E-02  0.828E-03  0.198E-02  0.828E-03  0.198E-02  0.380E-03  0.106E-02  0.828E-03  0.198E-02
 21.049  0.292E-03  0.814E-03  0.742E-03  0.159E-02  0.742E-03  0.159E-02  0.292E-03  0.814E-03  0.742E-03  0.159E-02
 21.149  0.240E-03  0.586E-03  0.731E-03  0.127E-02  0.731E-03  0.127E-02  0.240E-03  0.586E-03  0.731E-03  0.127E-02
 21.249  0.221E-03  0.433E-03  0.877E-03  0.106E-02  0.877E-03  0.106E-02  0.221E-03  0.433E-03  0.877E-03  0.106E-02
 21.349  0.238E-03  0.345E-03  0.129E-02  0.929E-03  0.129E-02  0.929E-03  0.238E-03  0.345E-03  0.129E-02  0.929E-03
 21.449  0.273E-03  0.301E-03  0.201E-02  0.879E-03  0.201E-02  0.879E-03  0.273E-03  0.301E-03  0.201E-02  0.879E-03
 21.549  0.288E-03  0.299E-03  0.286E-02  0.100E-02  0.286E-02  0.100E-02  0.288E-03  0.299E-03  0.286E-02  0.100E-02
 21.649  0.257E-03  0.328E-03  0.359E-02  0.140E-02  0.359E-02  0.140E-02  0.257E-03  0.328E-03  0.359E-02  0.140E-02
 21.749  0.191E-03  0.354E-03  0.402E-02  0.207E-02  0.402E-02  0.207E-02  0.191E-03  0.354E-03  0.402E-02  0.207E-02
 21.849  0.122E-03  0.335E-03  0.414E-02  0.291E-02  0.414E-02  0.291E-02  0.122E-03  0.335E-03  0.414E-02  0.291E-02
 21.949  0.761E-04  0.265E-03  0.412E-02  0.375E-02  0.412E-02  0.375E-02  0.761E-04  0.265E-03  0.412E-02  0.375E-02
 22.049  0.588E-04  0.175E-03  0.411E-02  0.445E-02  0.411E-02  0.445E-02  0.588E-04  0.175E-03  0.411E-02  0.445E-02
 22.149  0.605E-04  0.102E-03  0.414E-02  0.492E-02  0.414E-02  0.492E-02  0.605E-04  0.102E-03  0.414E-02  0.492E-02
 22.249  0.685E-04  0.648E-04  0.411E-02  0.518E-02  0.411E-02  0.518E-02  0.685E-04  0.648E-04  0.411E-02  0.518E-02
 22.349  0.742E-04  0.573E-04  0.387E-02  0.530E-02  0.387E-02  0.530E-02  0.742E-04  0.573E-04  0.387E-02  0.530E-02
 22.449  0.751E-04  0.658E-04  0.343E-02  0.532E-02  0.343E-02  0.532E-02  0.751E-04  0.658E-04  0.343E-02  0.532E-02
 22.549  0.748E-04  0.775E-04  0.291E-02  0.520E-02  0.291E-02  0.520E-02  0.748E-04  0.775E-04  0.291E-02  0.520E-02
 22.649  0.770E-04  0.850E-04  0.249E-02  0.488E-02  0.249E-02  0.488E-02  0.770E-04  0.850E-04  0.249E-02  0.488E-02
 22.749  0.809E-04  0.876E-04  0.222E-02  0.436E-02  0.222E-02  0.436E-02  0.809E-04  0.876E-04  0.222E-02  0.436E-02
 22.849  0.824E-04  0.897E-04  0.209E-02  0.379E-02  0.209E-02  0.379E-02  0.824E-04  0.897E-04  0.209E-02  0.379E-02
 22.949  0.802E-04  0.944E-04  0.203E-02  0.330E-02  0.203E-02  0.330E-02  0.802E-04  0.944E-04  0.203E-02  0.330E-02
 23.049  0.767E-04  0.100E-03  0.200E-02  0.296E-02  0.200E-02  0.296E-02  0.767E-04  0.100E-03  0.200E-02  0.296E-02
 23.149  0.734E-04  0.105E-03  0.196E-02  0.274E-02  0.196E-02  0.274E-02  0.734E-04  0.105E-03  0.196E-02  0.274E-02
 23.249  0.680E-04  0.110E-03  0.189E-02  0.264E-02  0.189E-02  0.264E-02  0.680E-04  0.110E-03  0.189E-02  0.264E-02
 23.349  0.582E-04  0.112E-03  0.181E-02  0.260E-02  0.181E-02  0.260E-02  0.582E-04  0.112E-03  0.181E-02  0.260E-02
 23.449  0.464E-04  0.110E-03  0.169E-02  0.255E-02  0.169E-02  0.255E-02  0.464E-04  0.110E-03  0.169E-02  0.255E-02
 23.549  0.400E-04  0.965E-04  0.154E-02  0.243E-02  0.154E-02  0.243E-02  0.400E-04  0.965E-04  0.154E-02  0.243E-02
 23.649  0.456E-04  0.766E-04  0.136E-02  0.228E-02  0.136E-02  0.228E-02  0.456E-04  0.766E-04  0.136E-02  0.228E-02
 23.749  0.626E-04  0.614E-04  0.122E-02  0.212E-02  0.122E-02  0.212E-02  0.626E-04  0.614E-04  0.122E-02  0.212E-02
 23.849  0.817E-04  0.622E-04  0.118E-02  0.198E-02  0.118E-02  0.198E-02  0.817E-04  0.622E-04  0.118E-02  0.198E-02
 23.949  0.901E-04  0.804E-04  0.120E-02  0.185E-02  0.120E-02  0.185E-02  0.901E-04  0.804E-04  0.120E-02  0.185E-02
 24.049  0.816E-04  0.104E-03  0.123E-02  0.175E-02  0.123E-02  0.175E-02  0.816E-04  0.104E-03  0.123E-02  0.175E-02
 24.149  0.613E-04  0.117E-03  0.122E-02  0.168E-02  0.122E-02  0.168E-02  0.613E-04  0.117E-03  0.122E-02  0.168E-02
 24.249  0.396E-04  0.108E-03  0.117E-02  0.161E-02  0.117E-02  0.161E-02  0.396E-04  0.108E-03  0.117E-02  0.161E-02
 24.349  0.239E-04  0.824E-04  0.107E-02  0.153E-02  0.107E-02  0.153E-02  0.239E-04  0.824E-04  0.107E-02  0.153E-02
 24.449  0.157E-04  0.540E-04  0.916E-03  0.147E-02  0.916E-03  0.147E-02  0.157E-04  0.540E-04  0.916E-03  0.147E-02
 24.549  0.142E-04  0.332E-04  0.771E-03  0.140E-02  0.771E-03  0.140E-02  0.142E-04  0.332E-04  0.771E-03  0.140E-02
 24.649  0.205E-04  0.223E-04  0.697E-03  0.127E-02  0.697E-03  0.127E-02  0.205E-04  0.223E-04  0.697E-03  0.127E-02
 24.749  0.411E-04  0.194E-04  0.695E-03  0.109E-02  0.695E-03  0.109E-02  0.411E-04  0.194E-04  0.695E-03  0.109E-02
 24.849  0.912E-04  0.236E-04  0.716E-03  0.971E-03  0.716E-03  0.971E-03  0.912E-04  0.236E-04  0.716E-03  0.971E-03
 24.949  0.193E-03  0.374E-04  0.714E-03  0.943E-03  0.714E-03  0.943E-03  0.193E-03  0.374E-04  0.714E-03  0.943E-03
 25.049  0.360E-03  0.703E-04  0.694E-03  0.967E-03  0.694E-03  0.967E-03  0.360E-03  0.703E-04  0.694E-03  0.967E-03
